# <Transmitter Set: Tx: 2 TX1 - Point 1> 
# <Receiver Set: Rx: 7 Walk3 > 
# <number of receiver points>
# <receiver point number> <number of paths for this point>
#	rx pt summary:
#	<received power (dBm)>
#	<mean time of arrival (sec)>
#	<delay spread (sec)>
#		path summary:
#		<path number>
#		<total interactions for path> (not including Tx and Rx)
#		<received power(dBm)>
#		<phase(deg)>
#		<time of arrival(sec)>
#		<arrival theta(deg)>
#		<arrival phi(deg)>
#		<departure theta(deg)>
#		<departure phi(deg)>
#			interactions summary:
#			<interaction description> (Tx:transmitter, Rx:receiver, T:transmission, R:reflection, D:diffraction)
#			<cartesian locations of interactions> (including Tx and Rx)
17
1 25
-107.372 3.12585e-07 1.84503e-07
1 1 -112.495 -88.0042 1.75487e-07 78.6539 97.9621 81.9 16.5184
Tx-DS-Rx 
12.0458 -18.3613 5.3
30.6528 -12.8431 8.06217
35.1137 -44.7377 1.6
2 4 -116.629 135.941 5.25884e-07 88.6548 114.803 91.3452 114.516
Tx-F-X-R-D-Rx 
12.0458 -18.3613 5.3
1.15706 5.51455 4.68377
-1.67279 11.7196 4.52362
-13.2175 37.0339 3.87027
3.85026 22.9144 3.3501
35.1137 -44.7377 1.6
3 3 -116.866 157.546 1.7179e-07 84.416 97.4634 91.7699 14.7842
Tx-F-X-DS-Rx 
12.0458 -18.3613 5.3
18.5581 -16.6426 5.09188
18.9055 -16.5509 5.08078
31.0029 -13.3582 4.69417
35.1137 -44.7377 1.6
4 4 -120.586 -118.661 6.16979e-07 88.8534 156.999 91.1466 32.9147
Tx-R-R-D-R-Rx 
12.0458 -18.3613 5.3
68.7097 18.3169 3.94907
15.8464 -21.2921 2.62701
29.3425 -12.2365 2.30173
31.3435 -43.1372 1.68198
35.1137 -44.7377 1.6
5 3 -122.722 -45.6746 5.37918e-07 89.4045 115.765 92.445 107.296
Tx-F-X-DS-Rx 
12.0458 -18.3613 5.3
3.20928 10.0158 4.03095
2.99379 10.7079 4
-6.7476 41.9909 2.60099
35.1137 -44.7377 1.6
6 1 -125.446 -51.2874 1.68144e-07 87.1821 100.472 96.6963 17.1084
Tx-DS-Rx 
12.0458 -18.3613 5.3
29.2591 -13.063 3.18546
35.1137 -44.7377 1.6
7 3 -125.654 -11.0859 6.10133e-07 88.8406 100.059 91.1594 32.9124
Tx-R-R-D-Rx 
12.0458 -18.3613 5.3
68.7112 18.3147 3.9339
15.8495 -21.2964 2.597
29.3489 -12.2394 2.268
35.1137 -44.7377 1.6
8 3 -125.857 55.0702 2.36509e-07 87.0078 84.5541 92.9922 38.9379
Tx-D-R-R-Rx 
12.0458 -18.3613 5.3
30.061 -3.80515 4.08934
27.1855 -37.276 2.33332
35.6189 -39.4391 1.87822
35.1137 -44.7377 1.6
9 2 -126.327 -15.6293 1.86401e-07 86.2024 130.886 93.7976 105.573
Tx-D-R-Rx 
12.0458 -18.3613 5.3
9.18668 -8.10277 4.5931
20.5275 -27.8907 3.07918
35.1137 -44.7377 1.6
10 1 -127.076 109.583 2.72704e-07 89.5344 111.056 97.1701 83.2238
Tx-DS-Rx 
12.0458 -18.3613 5.3
15.0914 7.27051 2.05287
35.1137 -44.7377 1.6
11 1 -127.679 174.563 2.7708e-07 90.5795 110.058 99.1127 81.7343
Tx-DS-Rx 
12.0458 -18.3613 5.3
15.8706 7.96736 1.03252
35.1137 -44.7377 1.6
12 1 -128.3 -134.657 2.07677e-07 86.5919 113.435 93.4081 72.6999
Tx-D-Rx 
12.0458 -18.3613 5.3
16.9106 -2.74231 4.32577
35.1137 -44.7377 1.6
13 3 -128.325 -12.0209 3.65549e-07 88.0646 161.456 91.9354 139.464
Tx-D-R-R-Rx 
12.0458 -18.3613 5.3
-11.3231 1.62289 4.26092
32.0326 -14.8729 2.69335
31.656 -43.5778 1.72325
35.1137 -44.7377 1.6
14 1 -128.474 -25.1461 2.67899e-07 89.5278 112.715 97.469 86.0758
Tx-DS-Rx 
12.0458 -18.3613 5.3
13.739 6.32285 2.05624
35.1137 -44.7377 1.6
15 11 -128.683 -150.984 5.2511e-07 88.6528 129.326 91.3472 124.104
Tx-F-X-F-X-F-X-F-X-R-D-R-Rx 
12.0458 -18.3613 5.3
-2.73307 3.46354 4.68013
-6.38174 8.85176 4.52709
-7.13183 9.95946 4.49563
-8.94864 12.6425 4.41943
-11.3622 16.2067 4.3182
-12.4858 17.8659 4.27107
-17.2807 24.9469 4.06995
-18.9485 27.4099 4
-22.212 32.2292 3.86312
-3.82055 10.8679 3.20021
15.4638 -20.7527 2.32919
35.1137 -44.7377 1.6
16 3 -128.786 -45.6369 2.36523e-07 87.0079 84.5968 92.9921 39.0301
Tx-D-R-R-Rx 
12.0458 -18.3613 5.3
30.0271 -3.78468 4.09011
27.1761 -37.2628 2.33392
35.6154 -39.4341 1.87845
35.1137 -44.7377 1.6
17 5 -128.898 90.0254 1.85702e-07 86.188 125.288 93.812 105.573
Tx-D-F-X-F-X-Rx 
12.0458 -18.3613 5.3
9.18668 -8.10277 4.59043
17.1743 -19.3893 3.66913
17.4253 -19.7439 3.64018
19.3362 -22.444 3.41978
19.8863 -23.2213 3.35634
35.1137 -44.7377 1.6
18 15 -129.056 56.9678 5.23926e-07 88.6497 128.254 91.3503 126.578
Tx-F-X-F-X-F-X-F-X-R-F-X-F-X-F-X-Rx 
12.0458 -18.3613 5.3
-3.5481 2.65281 4.6832
-7.59953 8.11248 4.52295
-8.34575 9.11806 4.49344
-10.2965 11.7469 4.41628
-12.2358 14.3603 4.33957
-14.5243 17.4442 4.24905
-17.4968 21.4499 4.13148
-19.5947 24.277 4.0485
-24.3067 30.6268 3.86212
-19.3344 24.3204 3.67283
-17.2358 21.6587 3.59294
-14.0992 17.6804 3.47353
-11.6948 14.6308 3.38199
-9.80697 12.2364 3.31012
-7.63034 9.47576 3.22726
35.1137 -44.7377 1.6
19 3 -129.089 -122.188 2.88918e-07 87.5509 165.513 92.4491 141.808
Tx-D-R-R-Rx 
12.0458 -18.3613 5.3
-2.65011 -6.79996 4.50026
34.077 -17.8806 2.85949
31.8875 -43.9041 1.74252
35.1137 -44.7377 1.6
20 2 -129.225 -1.1231 2.11264e-07 86.6498 142.42 93.3502 72.6999
Tx-D-R-Rx 
12.0458 -18.3613 5.3
16.9106 -2.74231 4.34237
29.311 -40.2721 2.02862
35.1137 -44.7377 1.6
21 11 -129.449 54.3632 5.254e-07 88.6535 130.06 91.3465 123.996
Tx-F-X-F-X-F-X-F-X-R-D-R-Rx 
12.0458 -18.3613 5.3
-2.69721 3.4994 4.68024
-6.30686 8.85176 4.5285
-7.13183 10.075 4.49382
-8.86333 12.6425 4.42104
-11.439 16.4617 4.31276
-12.3636 17.8326 4.2739
-17.0868 24.8361 4.07534
-18.8791 27.4937 4
-22.1201 32.2995 3.86376
-1.0853 7.96098 3.10765
18.2636 -24.6994 2.21538
35.1137 -44.7377 1.6
22 4 -129.612 -98.8823 2.89046e-07 87.552 165.515 92.448 143.478
Tx-D-R-R-R-Rx 
12.0458 -18.3613 5.3
-0.407801 -9.13886 4.6375
-2.65121 -6.80176 4.499
34.0778 -17.8818 2.85888
31.8876 -43.9043 1.74245
35.1137 -44.7377 1.6
23 11 -130.159 -126.486 5.254e-07 88.6535 130.051 91.3465 123.989
Tx-F-X-F-X-F-X-F-X-R-D-R-Rx 
12.0458 -18.3613 5.3
-2.69502 3.50159 4.68023
-6.30231 8.85176 4.52856
-7.13183 10.0821 4.49369
-8.85814 12.6425 4.42111
-11.4459 16.4805 4.31231
-12.3562 17.8306 4.27403
-17.075 24.8294 4.07563
-18.8739 27.4973 4
-22.1145 32.3038 3.86375
-1.15506 8.05809 3.11045
18.2333 -24.6567 2.2166
35.1137 -44.7377 1.6
24 1 -130.332 -68.0424 2.66363e-07 89.5777 113.822 97.7237 88.3216
Tx-DS-Rx 
12.0458 -18.3613 5.3
12.7567 5.90074 2.00802
35.1137 -44.7377 1.6
25 3 -130.342 36.5699 1.66704e-07 87.3605 99.9353 97.02 14.9031
Tx-F-X-DS-Rx 
12.0458 -18.3613 5.3
18.7064 -16.5886 4.45127
18.8611 -16.5475 4.43157
29.6719 -13.6703 3.054
35.1137 -44.7377 1.6
2 25
-105.393 2.78461e-07 1.8584e-07
1 1 -110.64 161.695 1.60064e-07 76.8237 93.8084 81.9865 16.5221
Tx-DS-Rx 
12.0458 -18.3613 5.3
30.652 -12.842 8.03222
32.4769 -40.2564 1.6
2 3 -114.859 46.9931 1.56182e-07 83.4622 93.1333 91.7909 14.7758
Tx-F-X-DS-Rx 
12.0458 -18.3613 5.3
18.5479 -16.6463 5.08975
18.9086 -16.5511 5.07808
31.0046 -13.3607 4.68695
32.4769 -40.2564 1.6
3 2 -118.28 -1.92566 3.4229e-07 87.933 89.8688 92.067 139.464
Tx-D-R-Rx 
12.0458 -18.3613 5.3
-11.3231 1.62289 4.19023
32.5334 -15.6094 2.48956
32.4769 -40.2564 1.6
4 4 -120.633 -167.927 5.08631e-07 88.6091 114.378 91.3909 114.516
Tx-F-X-R-D-Rx 
12.0458 -18.3613 5.3
1.15706 5.51455 4.66286
-1.67279 11.7196 4.49727
-13.2175 37.0339 3.82174
3.85026 22.9144 3.28392
32.4769 -40.2564 1.6
5 2 -120.741 132.845 3.21133e-07 87.7967 88.6641 92.2033 140.224
Tx-D-R-Rx 
12.0458 -18.3613 5.3
-9.02703 -0.819203 4.24512
33.0345 -16.3466 2.52013
32.4769 -40.2564 1.6
6 2 -121.3 161.291 2.36495e-07 87.0076 156.845 92.9924 58.0471
Tx-D-R-Rx 
12.0458 -18.3613 5.3
25.1531 2.65323 4.0053
27.9161 -38.3058 1.85931
32.4769 -40.2564 1.6
7 3 -121.387 55.897 5.94071e-07 88.8092 96.3767 91.1908 32.9136
Tx-R-R-D-Rx 
12.0458 -18.3613 5.3
68.7104 18.3158 3.89695
15.848 -21.2943 2.52389
29.3457 -12.238 2.18602
32.4769 -40.2564 1.6
8 3 -121.434 -166.532 3.21191e-07 87.7971 88.657 92.2029 141.598
Tx-D-R-R-Rx 
12.0458 -18.3613 5.3
-2.67641 -6.69178 4.57737
-9.03158 -0.826641 4.24471
33.0374 -16.3509 2.51981
32.4769 -40.2564 1.6
9 7 -121.879 -43.9731 5.07597e-07 88.6063 144.914 91.3937 120.506
Tx-F-X-F-X-R-D-R-Rx 
12.0458 -18.3613 5.3
-1.59856 4.79705 4.64605
-4.18005 9.17857 4.52233
-12.932 24.0332 4.10286
-15.0782 27.6758 4
-18.2983 33.1412 3.84567
16.7686 -2.65492 2.62651
26.1439 -35.8077 1.78829
32.4769 -40.2564 1.6
10 2 -122.321 170.745 3.2114e-07 87.7968 88.6317 92.2032 140.306
Tx-D-R-Rx 
12.0458 -18.3613 5.3
-9.04773 -0.853015 4.24536
33.0476 -16.3659 2.51939
32.4769 -40.2564 1.6
11 3 -122.976 7.09889 5.07674e-07 89.3018 118.714 92.417 111.817
Tx-F-X-DS-Rx 
12.0458 -18.3613 5.3
2.09203 6.50349 4.16949
0.599725 10.2313 4
-10.8545 38.8443 2.69907
32.4769 -40.2564 1.6
12 2 -123.16 -66.846 2.36497e-07 87.0076 156.808 92.9924 58.1159
Tx-D-R-Rx 
12.0458 -18.3613 5.3
25.123 2.66112 4.0058
27.9125 -38.3009 1.85958
32.4769 -40.2564 1.6
13 1 -123.394 79.1925 1.52046e-07 86.6847 96.7388 96.6944 17.0779
Tx-DS-Rx 
12.0458 -18.3613 5.3
29.2648 -13.0713 3.1857
32.4769 -40.2564 1.6
14 2 -124.224 -161.727 1.69416e-07 85.821 132.233 94.179 105.573
Tx-D-R-Rx 
12.0458 -18.3613 5.3
9.18668 -8.10277 4.52187
17.9388 -24.2416 3.18041
32.4769 -40.2564 1.6
15 2 -125.202 22.6844 2.65532e-07 87.3351 85.456 92.6649 141.808
Tx-D-R-Rx 
12.0458 -18.3613 5.3
-2.65011 -6.79996 4.42967
34.2366 -18.1154 2.63381
32.4769 -40.2564 1.6
16 3 -125.431 -170.794 3.66733e-07 88.0708 174.969 91.9292 167.712
Tx-D-R-R-Rx 
12.0458 -18.3613 5.3
-18.3145 -11.7483 4.25338
34.5313 -18.549 2.45866
29.0882 -39.9581 1.71459
32.4769 -40.2564 1.6
17 1 -126.203 91.3411 2.55616e-07 89.4874 110.094 97.1706 83.2252
Tx-DS-Rx 
12.0458 -18.3613 5.3
15.0907 7.26988 2.05274
32.4769 -40.2564 1.6
18 3 -126.596 -47.0588 3.66735e-07 88.0708 174.955 91.9292 167.675
Tx-D-R-R-Rx 
12.0458 -18.3613 5.3
-18.3115 -11.7287 4.25334
34.5265 -18.5419 2.45885
29.0875 -39.9571 1.71461
32.4769 -40.2564 1.6
19 8 -127.195 55.7518 5.07404e-07 88.6058 122.038 91.3942 124.999
Tx-F-X-F-X-F-X-R-D-Rx 
12.0458 -18.3613 5.3
-3.02856 3.16805 4.66033
-6.83348 8.60228 4.49887
-7.49311 9.54438 4.47088
-9.55468 12.4887 4.3834
-11.3622 15.0702 4.3067
-13.4444 18.0441 4.21834
-22.9703 31.6491 3.81411
18.8652 -18.5051 2.22451
32.4769 -40.2564 1.6
20 3 -127.475 168.398 3.31856e-07 87.868 165.341 92.132 140.224
Tx-D-R-R-Rx 
12.0458 -18.3613 5.3
-9.02703 -0.819203 4.27925
30.7096 -12.9267 2.73278
28.5759 -39.2359 1.75012
32.4769 -40.2564 1.6
21 1 -127.498 -34.0655 1.90509e-07 86.2844 112.536 93.7156 72.6999
Tx-D-Rx 
12.0458 -18.3613 5.3
16.9106 -2.74231 4.23762
32.4769 -40.2564 1.6
22 2 -127.902 -159.049 2.15515e-07 71.5032 140.366 90.3774 38.9379
Tx-D-DS-Rx 
12.0458 -18.3613 5.3
30.061 -3.80515 5.14742
24.7734 -33.8758 4.94629
32.4769 -40.2564 1.6
23 3 -128.251 -177.048 1.50675e-07 86.8851 96.0116 97.0177 14.8701
Tx-F-X-DS-Rx 
12.0458 -18.3613 5.3
18.6646 -16.6039 4.45701
18.8733 -16.5484 4.43042
29.6781 -13.6795 3.05428
32.4769 -40.2564 1.6
24 2 -128.46 86.064 2.16184e-07 71.7155 139.342 90.1705 39.0301
Tx-D-DS-Rx 
12.0458 -18.3613 5.3
30.0271 -3.78468 5.23111
24.3454 -33.2725 5.14172
32.4769 -40.2564 1.6
25 15 -128.516 17.4126 5.06747e-07 88.604 128.519 91.396 126.312
Tx-F-X-F-X-F-X-F-X-R-F-X-F-X-F-X-Rx 
12.0458 -18.3613 5.3
-3.45949 2.73712 4.66191
-7.48328 8.2124 4.49632
-8.20176 9.19005 4.46675
-10.1722 11.8712 4.38566
-12.0644 14.446 4.30779
-14.3421 17.5454 4.21406
-17.3172 21.5936 4.09162
-19.3225 24.3224 4.0091
-24.082 30.7987 3.81323
-18.9732 24.3806 3.61332
-17.084 22.0071 3.53939
-13.7808 17.8573 3.41013
-11.3622 14.8188 3.31549
-9.52841 12.515 3.24373
-7.25758 9.66214 3.15487
32.4769 -40.2564 1.6
3 25
-106.091 2.72785e-07 1.99359e-07
1 1 -108.611 19.8053 1.45272e-07 74.4297 88.1722 82.1295 16.5385
Tx-DS-Rx 
12.0458 -18.3613 5.3
30.6488 -12.8372 7.98259
29.9182 -35.7313 1.6
2 3 -112.609 -38.9914 1.41179e-07 82.1884 87.2181 91.833 14.7733
Tx-F-X-DS-Rx 
12.0458 -18.3613 5.3
18.5448 -16.6474 5.0849
18.9096 -16.5512 5.07283
31.0052 -13.3615 4.67251
29.9182 -35.7313 1.6
3 2 -113.34 -70.6697 1.97534e-07 86.4167 169.086 93.5833 38.9379
Tx-D-R-Rx 
12.0458 -18.3613 5.3
30.061 -3.80515 3.8496
25.483 -34.8761 1.88286
29.9182 -35.7313 1.6
4 2 -115.252 -17.8632 1.9754e-07 86.4168 169.028 93.5832 39.0301
Tx-D-R-Rx 
12.0458 -18.3613 5.3
30.0271 -3.78468 3.85049
25.4791 -34.8706 1.88315
29.9182 -35.7313 1.6
5 3 -115.94 88.1883 5.78416e-07 88.777 91.4184 91.223 32.917
Tx-R-R-D-Rx 
12.0458 -18.3613 5.3
68.7081 18.3191 3.85896
15.8433 -21.2877 2.44873
29.3363 -12.2333 2.10182
29.9182 -35.7313 1.6
6 5 -116.943 168.551 6.38116e-07 88.8914 166.67 91.1086 87.7991
Tx-F-X-R-R-R-Rx 
12.0458 -18.3613 5.3
13.2335 12.5438 4.70152
13.4941 19.3231 4.57023
15.0058 58.6575 3.80851
34.5986 54.1762 3.41958
25.3162 -34.6409 1.69152
29.9182 -35.7313 1.6
7 3 -118.286 10.5007 3.28161e-07 87.8439 -16.0558 92.1561 140.224
Tx-D-R-R-Rx 
12.0458 -18.3613 5.3
-9.02703 -0.819203 4.26774
34.6855 -18.7759 2.4886
34.9213 -37.1712 1.796
29.9182 -35.7313 1.6
8 3 -119.629 145.93 3.28163e-07 87.844 -16.0241 92.156 140.306
Tx-D-R-R-Rx 
12.0458 -18.3613 5.3
-9.04773 -0.853015 4.26796
34.6988 -18.7955 2.48786
34.9242 -37.169 1.79608
29.9182 -35.7313 1.6
9 2 -120.538 -3.62497 3.41047e-07 87.9254 75.544 92.0746 167.712
Tx-D-R-Rx 
12.0458 -18.3613 5.3
-18.3145 -11.7483 4.17445
34.3982 -18.3532 2.25008
29.9182 -35.7313 1.6
10 2 -120.589 -125.868 1.5261e-07 85.3598 134.114 94.6402 105.573
Tx-D-R-Rx 
12.0458 -18.3613 5.3
9.18668 -8.10277 4.43564
15.6495 -21.0145 3.26373
29.9182 -35.7313 1.6
11 1 -121.044 62.5919 1.36371e-07 85.9963 91.6357 96.6923 17.0421
Tx-DS-Rx 
12.0458 -18.3613 5.3
29.2714 -13.0811 3.18598
29.9182 -35.7313 1.6
12 4 -121.389 172.244 4.91365e-07 88.5603 113.965 91.4397 114.516
Tx-F-X-R-D-Rx 
12.0458 -18.3613 5.3
1.15706 5.51455 4.64045
-1.67279 11.7196 4.46905
-13.2175 37.0339 3.76977
3.85026 22.9144 3.21303
29.9182 -35.7313 1.6
13 3 -121.59 -154.304 5.03671e-07 89.2473 115.255 92.3291 107.295
Tx-F-X-DS-Rx 
12.0458 -18.3613 5.3
3.21075 10.0127 4.09132
2.54324 12.1564 4
-6.74676 41.9915 2.72908
29.9182 -35.7313 1.6
14 2 -121.638 -177.952 2.00626e-07 66.4531 158.279 91.2822 38.9379
Tx-D-DS-Rx 
12.0458 -18.3613 5.3
30.061 -3.80515 4.78159
24.5815 -33.6053 4.10339
29.9182 -35.7313 1.6
15 2 -121.648 124.368 3.4105e-07 87.9255 75.5599 92.0745 167.675
Tx-D-R-Rx 
12.0458 -18.3613 5.3
-18.3115 -11.7287 4.17442
34.3945 -18.3477 2.25023
29.9182 -35.7313 1.6
16 2 -122.167 153.462 2.00778e-07 66.5556 156.023 91.1267 39.0301
Tx-D-DS-Rx 
12.0458 -18.3613 5.3
30.0271 -3.78468 4.84476
24.325 -33.2437 4.25463
29.9182 -35.7313 1.6
17 2 -122.472 -102.149 3.06432e-07 87.691 86.3025 92.309 140.224
Tx-D-R-Rx 
12.0458 -18.3613 5.3
-9.02703 -0.819203 4.19442
31.3327 -13.8432 2.48441
29.9182 -35.7313 1.6
18 3 -122.49 105.311 6.32804e-07 88.8821 121.185 91.1179 58.0471
Tx-D-R-R-Rx 
12.0458 -18.3613 5.3
25.1531 2.65323 4.81671
31.4478 -10.7787 4.52725
-13.8374 36.559 3.24891
29.9182 -35.7313 1.6
19 3 -123.81 -89.3385 6.32805e-07 88.8821 121.177 91.1179 57.9893
Tx-D-R-R-Rx 
12.0458 -18.3613 5.3
25.1816 2.65163 4.81644
31.4669 -10.7656 4.52732
-13.8271 36.5669 3.24894
29.9182 -35.7313 1.6
20 2 -124.481 -89.8401 1.52617e-07 85.36 134.064 94.64 105.741
Tx-D-R-Rx 
12.0458 -18.3613 5.3
9.15729 -8.11302 4.43584
15.5803 -20.917 3.27324
29.9182 -35.7313 1.6
21 2 -124.597 -53.1372 2.51422e-07 87.1854 82.5179 92.8146 141.808
Tx-D-R-Rx 
12.0458 -18.3613 5.3
-2.65011 -6.79996 4.38072
32.5564 -15.6433 2.59607
29.9182 -35.7313 1.6
22 2 -124.913 -176.758 3.06444e-07 87.6911 86.2682 92.3089 140.306
Tx-D-R-Rx 
12.0458 -18.3613 5.3
-9.04773 -0.853015 4.1947
31.3447 -13.8609 2.4837
29.9182 -35.7313 1.6
23 6 -124.957 163.191 6.64206e-07 88.935 151.134 91.065 64.8935
Tx-R-D-R-F-X-R-Rx 
12.0458 -18.3613 5.3
41.5084 44.5159 4.00911
32.1928 43.4946 3.83489
9.06815 54.1083 3.36187
10.4 46.2091 3.21295
11.6789 38.6237 3.06994
23.631 -32.2654 1.73347
29.9182 -35.7313 1.6
24 1 -125.246 -11.5916 2.38532e-07 89.4299 109.026 97.1711 83.227
Tx-DS-Rx 
12.0458 -18.3613 5.3
15.0898 7.26909 2.0526
29.9182 -35.7313 1.6
25 4 -125.662 -8.21368 1.51653e-06 89.5336 145.725 90.4664 135.065
Tx-D-R-R-R-Rx 
12.0458 -18.3613 5.3
-104.663 98.0824 3.95782
35.7393 -36.5471 2.3742
12.7223 5.88705 1.98119
22.5062 -30.6799 1.67302
29.9182 -35.7313 1.6
4 25
-102.547 4.02721e-07 3.62884e-07
1 1 -107.045 172.133 1.30308e-07 70.94 88.2776 82.3718 16.56
Tx-DS-Rx 
12.0458 -18.3613 5.3
30.6445 -12.8309 7.89871
30.0965 -31.0534 1.6
2 3 -110.636 133.119 1.25759e-07 80.2343 87.0473 91.9039 14.7555
Tx-F-X-DS-Rx 
12.0458 -18.3613 5.3
18.5233 -16.6552 5.07733
18.9163 -16.5517 5.06382
31.0088 -13.3668 4.64814
30.0965 -31.0534 1.6
3 1 -111.102 -33.3397 1.17295e-06 89.3969 136.221 90.6031 135.065
Tx-D-Rx 
12.0458 -18.3613 5.3
-104.663 98.0824 3.56463
30.0965 -31.0534 1.6
4 4 -112.206 -134.053 2.74594e-07 87.4231 144.904 92.5769 100.827
Tx-F-X-D-R-Rx 
12.0458 -18.3613 5.3
6.84728 8.82169 4.05443
6.62009 10.0096 4
6.29795 11.6941 3.92281
15.4897 -20.7892 2.40347
30.0965 -31.0534 1.6
5 2 -112.451 -105.911 8.98665e-07 89.2128 138.692 90.7872 138.172
Tx-R-R-Rx 
12.0458 -18.3613 5.3
-77.4515 61.7365 3.64983
-79.1994 64.9915 3.59907
30.0965 -31.0534 1.6
6 6 -113.102 69.7232 2.59733e-07 87.2755 -157.991 92.7245 17.4208
Tx-R-F-X-R-R-R-Rx 
12.0458 -18.3613 5.3
30.4733 -12.5791 4.38094
22.9885 -21.821 3.81501
21.8385 -23.241 3.72805
19.3814 -26.275 3.54226
35.7881 -20.3983 2.71295
24.4036 -33.3546 1.8922
30.0965 -31.0534 1.6
7 2 -115.866 30.4416 3.2582e-07 87.8284 74.6866 92.1716 167.712
Tx-D-R-Rx 
12.0458 -18.3613 5.3
-18.3145 -11.7483 4.12178
33.8108 -17.4888 2.13329
30.0965 -31.0534 1.6
8 2 -115.958 102.972 1.17295e-06 89.3969 136.202 90.6031 135.086
Tx-R-R-Rx 
12.0458 -18.3613 5.3
-104.367 97.7015 3.56967
-104.616 98.1203 3.56455
30.0965 -31.0534 1.6
9 4 -116.656 -0.634197 2.74595e-07 87.4231 144.778 92.5769 101.04
Tx-F-X-D-R-Rx 
12.0458 -18.3613 5.3
6.74651 8.79896 4.05458
6.51426 9.98933 4
6.18677 11.6678 3.92303
15.421 -20.6924 2.4085
30.0965 -31.0534 1.6
10 2 -116.756 179.083 3.25821e-07 87.8285 74.7037 92.1715 167.675
Tx-D-R-Rx 
12.0458 -18.3613 5.3
-18.3115 -11.7287 4.12173
33.8077 -17.4843 2.13342
30.0965 -31.0534 1.6
11 7 -117.398 6.65839 4.77958e-07 88.5199 130.068 91.4801 124.764
Tx-F-X-F-X-F-X-R-Rx 
12.0458 -18.3613 5.3
-2.95116 3.24545 4.6204
-6.71754 8.67184 4.44972
-7.36694 9.60746 4.42029
-9.44377 12.5996 4.32618
-11.3622 15.3636 4.23924
-13.2422 18.0722 4.15405
-22.7714 31.8013 3.72222
30.0965 -31.0534 1.6
12 2 -118.657 144.125 1.96165e-07 86.3916 176.51 93.6084 39.0301
Tx-D-R-Rx 
12.0458 -18.3613 5.3
30.0271 -3.78468 3.8403
22.4399 -30.5865 2.08373
30.0965 -31.0534 1.6
13 1 -119.128 -152.206 1.20804e-07 84.9542 92.5858 96.6876 16.964
Tx-DS-Rx 
12.0458 -18.3613 5.3
29.2858 -13.1023 3.18659
30.0965 -31.0534 1.6
14 2 -119.293 2.11718 2.00827e-07 67.3907 -159.246 91.2167 38.9379
Tx-D-DS-Rx 
12.0458 -18.3613 5.3
30.061 -3.80515 4.80809
24.3232 -33.2412 4.17115
30.0965 -31.0534 1.6
15 2 -119.534 170.15 2.00538e-07 66.9817 -162.45 91.1197 39.0301
Tx-D-DS-Rx 
12.0458 -18.3613 5.3
30.0271 -3.78468 4.84757
24.1135 -32.9456 4.266
30.0965 -31.0534 1.6
16 1 -120.606 -116.83 8.98675e-07 89.2129 138.94 90.7871 137.881
Tx-D-Rx 
12.0458 -18.3613 5.3
-79.7002 64.5937 3.60062
30.0965 -31.0534 1.6
17 3 -120.607 -51.6324 8.63833e-07 89.1811 116.292 90.8189 -161.56
Tx-R-R-D-Rx 
12.0458 -18.3613 5.3
-82.5674 -49.9087 3.87446
-74.5219 -25.323 3.50471
11.7363 6.10944 2.19247
30.0965 -31.0534 1.6
18 3 -120.607 -51.6324 8.63833e-07 89.1811 116.292 90.8189 -161.56
Tx-R-R-D-Rx 
12.0458 -18.3613 5.3
-82.5674 -49.9087 3.87446
-74.5219 -25.323 3.50471
11.7363 6.10944 2.19247
30.0965 -31.0534 1.6
19 3 -121.124 50.0268 4.89818e-07 89.2611 116.827 92.3974 107.371
Tx-F-X-DS-Rx 
12.0458 -18.3613 5.3
3.08678 10.2783 4.04367
2.77538 11.2738 4
-6.81688 41.9378 2.65486
30.0965 -31.0534 1.6
20 2 -121.284 109.495 1.96175e-07 86.3918 176.572 93.6082 38.9379
Tx-D-R-Rx 
12.0458 -18.3613 5.3
30.061 -3.80515 3.83952
22.446 -30.5951 2.08329
30.0965 -31.0534 1.6
21 2 -122.046 -158.903 2.90831e-07 87.567 86.1837 92.433 140.224
Tx-D-R-Rx 
12.0458 -18.3613 5.3
-9.02703 -0.819203 4.13501
31.2524 -13.7252 2.33789
30.0965 -31.0534 1.6
22 3 -122.494 -11.9568 6.19829e-07 88.8587 122.093 91.1413 57.9893
Tx-D-R-R-Rx 
12.0458 -18.3613 5.3
25.1816 2.65163 4.80631
31.6645 -10.6302 4.51187
-12.8027 37.3517 3.20859
