# <Transmitter Set: Tx: 2 TX1 - Point 1> 
# <Receiver Set: Rx: 9 Walk2 > 
# <number of receiver points>
# <receiver point number> <number of paths for this point>
#	rx pt summary:
#	<received power (dBm)>
#	<mean time of arrival (sec)>
#	<delay spread (sec)>
#		path summary:
#		<path number>
#		<total interactions for path> (not including Tx and Rx)
#		<received power(dBm)>
#		<phase(deg)>
#		<time of arrival(sec)>
#		<arrival theta(deg)>
#		<arrival phi(deg)>
#		<departure theta(deg)>
#		<departure phi(deg)>
#			interactions summary:
#			<interaction description> (Tx:transmitter, Rx:receiver, T:transmission, R:reflection, D:diffraction)
#			<cartesian locations of interactions> (including Tx and Rx)
18
1 25
-85.2992 2.33694e-07 6.44697e-08
1 0 -85.7652 -38.1823 2.26819e-07 86.8798 -46.5963 93.1202 133.404
Tx-Rx 
12.0458 -18.3613 5.3
-34.5942 30.9526 1.6
2 1 -107.48 54.6813 8.73977e-07 89.1906 136.227 90.8094 135.065
Tx-D-Rx 
12.0458 -18.3613 5.3
-104.663 98.0824 2.97088
-34.5942 30.9526 1.6
3 2 -112.285 -169.735 8.73977e-07 89.1906 136.198 90.8094 135.082
Tx-R-R-Rx 
12.0458 -18.3613 5.3
-104.422 97.7728 2.97638
-104.625 98.1131 2.97079
-34.5942 30.9526 1.6
4 1 -116.582 -21.1951 2.27357e-07 86.8872 -50.9109 93.1128 137.011
Tx-D-Rx 
12.0458 -18.3613 5.3
-15.0566 6.90237 3.28508
-34.5942 30.9526 1.6
5 3 -116.947 17.1343 7.52131e-07 89.0595 -157.834 90.9405 140.49
Tx-D-R-R-Rx 
12.0458 -18.3613 5.3
-9.15422 -0.879044 4.84889
-98.8101 -36.4786 3.26525
-79.9502 12.4748 2.40402
-34.5942 30.9526 1.6
6 1 -117.01 -44.0209 2.27701e-07 86.8919 -49.7062 93.1081 141.598
Tx-D-Rx 
12.0458 -18.3613 5.3
-2.67641 -6.69178 4.27992
-34.5942 30.9526 1.6
7 1 -117.126 -12.009 2.27562e-07 86.89 -32.7699 93.11 131.855
Tx-D-Rx 
12.0458 -18.3613 5.3
-28.7763 27.2076 1.97593
-34.5942 30.9526 1.6
8 3 -117.803 -174.963 7.52132e-07 89.0595 -157.84 90.9405 140.449
Tx-D-R-R-Rx 
12.0458 -18.3613 5.3
-9.11678 -0.884772 4.84943
-98.8025 -36.4861 3.26532
-79.9419 12.4833 2.40384
-34.5942 30.9526 1.6
9 1 -118.44 98.1441 2.27848e-07 86.8939 -41.8338 93.1061 127.157
Tx-D-Rx 
12.0458 -18.3613 5.3
-5.77742 5.15686 3.69872
-34.5942 30.9526 1.6
10 1 -121.491 -18.7359 2.32877e-07 86.9611 -55.7697 93.0389 152.113
Tx-D-Rx 
12.0458 -18.3613 5.3
-8.40546 -7.53907 4.07162
-34.5942 30.9526 1.6
11 1 -121.886 69.8281 2.56587e-07 87.2421 -80.4981 92.7579 156.306
Tx-D-Rx 
12.0458 -18.3613 5.3
-29.3832 -0.180724 3.1206
-34.5942 30.9526 1.6
12 3 -122.663 -145.156 2.33912e-07 86.9745 -33.1419 93.0255 118.49
Tx-D-F-X-Rx 
12.0458 -18.3613 5.3
-3.8089 10.8519 3.54324
-11.3622 15.7837 3.06646
-12.415 16.4711 3
-34.5942 30.9526 1.6
13 2 -122.79 52.1075 2.6457e-07 87.3254 -16.5219 92.6746 156.382
Tx-D-R-Rx 
12.0458 -18.3613 5.3
-29.3133 -0.276928 3.1913
-30.849 29.8417 1.78249
-34.5942 30.9526 1.6
14 1 -123.025 107.718 2.3066e-07 86.9318 -53.2736 93.0682 149.828
Tx-D-Rx 
12.0458 -18.3613 5.3
-5.34414 -8.25152 4.22181
-34.5942 30.9526 1.6
15 1 -123.697 -16.7384 2.52734e-07 91.6214 -73.4798 96.9053 158.319
Tx-D-Rx 
12.0458 -18.3613 5.3
-24.2475 -3.93206 0.57
-34.5942 30.9526 1.6
16 1 -123.835 -159.43 2.56358e-07 87.2396 -69.122 92.7604 167.62
Tx-D-Rx 
12.0458 -18.3613 5.3
-18.3277 -11.6942 3.80069
-34.5942 30.9526 1.6
17 1 -124.109 119.986 2.53044e-07 92.5246 -73.556 97.7087 158.25
Tx-D-Rx 
12.0458 -18.3613 5.3
-24.3215 -3.85224 0
-34.5942 30.9526 1.6
18 1 -124.325 -65.4932 3.3934e-07 89.4224 -135.591 92.6737 156.236
Tx-DS-Rx 
12.0458 -18.3613 5.3
-54.862 11.099 1.88603
-34.5942 30.9526 1.6
19 2 -124.361 132.497 2.67761e-07 91.4283 30.581 92.7682 156.306
Tx-D-DS-Rx 
12.0458 -18.3613 5.3
-29.3832 -0.180724 3.11247
-32.6345 32.1107 1.54324
-34.5942 30.9526 1.6
20 1 -124.466 -70.1271 3.37772e-07 89.2415 -134.581 92.6205 156.374
Tx-DS-Rx 
12.0458 -18.3613 5.3
-54.5039 10.7496 1.9755
-34.5942 30.9526 1.6
21 1 -124.738 -20.4539 2.566e-07 87.2422 -80.4021 92.7578 156.382
Tx-D-Rx 
12.0458 -18.3613 5.3
-29.3133 -0.276928 3.12565
-34.5942 30.9526 1.6
22 2 -125.102 -146.049 2.67371e-07 93.9929 25.316 92.8519 156.382
Tx-D-DS-Rx 
12.0458 -18.3613 5.3
-29.3133 -0.276928 3.05131
-32.502 31.9423 1.43844
-34.5942 30.9526 1.6
23 2 -125.413 15.262 2.6458e-07 87.3255 -16.4124 92.6745 156.306
Tx-D-R-Rx 
12.0458 -18.3613 5.3
-29.3832 -0.180724 3.18659
-30.857 29.8518 1.78199
-34.5942 30.9526 1.6
24 2 -125.456 21.5992 2.5945e-07 39.6885 41.8948 90.7558 161.117
Tx-D-DS-Rx 
12.0458 -18.3613 5.3
-15.2952 -9.0096 4.91881
-32.9112 32.4624 4.32441
-34.5942 30.9526 1.6
25 4 -125.738 -9.79835 4.30608e-07 88.3571 -51.6409 91.6429 131.454
Tx-F-X-R-D-Rx 
12.0458 -18.3613 5.3
-5.9378 1.99803 4.52085
-9.04407 5.51465 4.38627
-28.4357 27.4681 3.54611
-11.543 1.82658 2.66539
-34.5942 30.9526 1.6
2 25
-85.6653 2.28162e-07 7.0486e-08
1 0 -84.9737 132.845 2.08584e-07 86.6067 -46.136 93.3933 133.864
Tx-Rx 
12.0458 -18.3613 5.3
-31.1957 26.6298 1.6
2 1 -101.383 -8.8129 4.46991e-07 88.4173 8.62436 91.5827 63.6254
Tx-D-Rx 
12.0458 -18.3613 5.3
39.6855 37.3804 3.58088
-31.1957 26.6298 1.6
3 1 -102.476 160.421 4.46991e-07 88.4173 8.59734 91.5827 63.5942
Tx-D-Rx 
12.0458 -18.3613 5.3
39.708 37.3496 3.58137
-31.1957 26.6298 1.6
4 1 -104.234 28.1505 4.63158e-07 88.4726 9.59191 91.5274 62.5086
Tx-D-Rx 
12.0458 -18.3613 5.3
41.8847 38.9799 3.57634
-31.1957 26.6298 1.6
5 1 -105.279 -167.17 4.63158e-07 88.4726 9.56555 91.5274 62.4783
Tx-D-Rx 
12.0458 -18.3613 5.3
41.9073 38.9491 3.5768
-31.1957 26.6298 1.6
6 3 -108.11 13.4487 4.80632e-07 88.5281 10.1816 91.4719 60.9688
Tx-F-X-R-Rx 
12.0458 -18.3613 5.3
38.486 29.277 3.90003
40.7964 33.4398 3.77769
44.569 40.237 3.57794
-31.1957 26.6298 1.6
7 1 -109.676 -121.422 4.45194e-07 88.0777 8.38136 91.2039 63.6057
Tx-D-Rx 
12.0458 -18.3613 5.3
39.5466 37.0526 4
-31.1957 26.6298 1.6
8 3 -111.78 -88.985 4.78578e-07 88.5218 10.4613 91.4782 61.5399
Tx-F-X-D-Rx 
12.0458 -18.3613 5.3
38.1598 29.8145 3.8859
40.029 33.263 3.78468
43.9549 40.5056 3.57208
-31.1957 26.6298 1.6
9 1 -112.528 33.9858 2.27045e-07 85.5618 -66.1926 91.37 160.793
Tx-D-Rx 
12.0458 -18.3613 5.3
-15.5936 -8.73246 4.6
-31.1957 26.6298 1.6
10 1 -112.744 -137.07 8.92152e-07 89.2071 135.797 90.7929 135.065
Tx-D-Rx 
12.0458 -18.3613 5.3
-104.663 98.0824 3.01834
-31.1957 26.6298 1.6
11 3 -112.888 72.2549 4.78579e-07 88.5218 10.4355 91.4782 61.5103
Tx-F-X-D-Rx 
12.0458 -18.3613 5.3
38.1751 29.7838 3.88641
40.0747 33.2838 3.78365
43.9774 40.4748 3.57251
-31.1957 26.6298 1.6
12 1 -114.627 -87.0062 3.0687e-07 87.6943 -6.8318 92.3057 77.5507
Tx-D-Rx 
12.0458 -18.3613 5.3
20.6082 20.4234 3.70076
-31.1957 26.6298 1.6
13 1 -114.838 2.04589 2.40936e-07 87.0628 -85.998 92.9372 156.382
Tx-D-Rx 
12.0458 -18.3613 5.3
-29.3133 -0.276928 2.98393
-31.1957 26.6298 1.6
14 1 -115.173 34.9572 2.09041e-07 86.6142 -50.7134 93.3858 137.011
Tx-D-Rx 
12.0458 -18.3613 5.3
-15.0566 6.90237 3.10795
-31.1957 26.6298 1.6
15 1 -115.221 -178.251 2.13372e-07 86.683 -40.7893 93.317 106.456
Tx-D-Rx 
12.0458 -18.3613 5.3
9.00137 -8.05422 4.67711
-31.1957 26.6298 1.6
16 1 -115.892 0.849742 2.15506e-07 86.7159 -1.70411 93.2841 129.271
Tx-D-Rx 
12.0458 -18.3613 5.3
-24.5804 26.433 1.97977
-31.1957 26.6298 1.6
17 1 -115.968 137.511 2.09396e-07 86.6199 -49.4405 93.3801 141.598
Tx-D-Rx 
12.0458 -18.3613 5.3
-2.67641 -6.69178 4.19045
-31.1957 26.6298 1.6
18 1 -116.035 69.7034 4.45228e-07 87.6777 8.37585 90.7409 63.5993
Tx-D-Rx 
12.0458 -18.3613 5.3
39.5512 37.0464 4.5
-31.1957 26.6298 1.6
19 1 -117.021 -35.3687 5.34146e-07 88.6756 -98.8147 91.3244 -143.017
Tx-D-Rx 
12.0458 -18.3613 5.3
-44.8125 -61.1806 3.65439
-31.1957 26.6298 1.6
20 1 -117.129 51.2279 2.40942e-07 87.0629 -86.1324 92.9371 156.306
Tx-D-Rx 
12.0458 -18.3613 5.3
-29.3832 -0.180724 2.97872
-31.1957 26.6298 1.6
21 1 -117.314 6.75905 3.06874e-07 87.6943 -6.92843 92.3057 77.4219
Tx-D-Rx 
12.0458 -18.3613 5.3
20.6779 20.3263 3.70399
-31.1957 26.6298 1.6
22 1 -117.886 123.041 5.34147e-07 88.6756 -98.7911 91.3244 -142.987
Tx-D-Rx 
12.0458 -18.3613 5.3
-44.7786 -61.201 3.65474
-31.1957 26.6298 1.6
23 1 -118.007 -157.251 2.27286e-07 84.2676 -66.0658 89.6058 160.965
Tx-D-Rx 
12.0458 -18.3613 5.3
-15.4344 -8.88034 5.5
-31.1957 26.6298 1.6
24 1 -118.487 -93.5121 2.09853e-07 86.6273 -40.1906 93.3727 127.157
Tx-D-Rx 
12.0458 -18.3613 5.3
-5.77742 5.15686 3.56095
-31.1957 26.6298 1.6
25 4 -120.533 -60.285 4.80634e-07 88.5281 10.3325 91.4719 61.1749
Tx-F-X-D-R-Rx 
12.0458 -18.3613 5.3
38.3494 29.4352 3.89817
40.5533 33.4398 3.78072
41.3925 34.9649 3.73599
44.4386 40.4192 3.57547
-31.1957 26.6298 1.6
3 25
-78.9089 2.04818e-07 5.39712e-08
1 0 -84.2074 -132.005 1.92187e-07 86.3169 -47.804 93.6831 132.196
Tx-Rx 
12.0458 -18.3613 5.3
-26.5608 24.2219 1.6
2 1 -90.5647 169.046 2.16874e-07 86.7366 123.183 93.2634 131.649
Tx-R-Rx 
12.0458 -18.3613 5.3
-28.601 27.3417 1.81254
-26.5608 24.2219 1.6
3 1 -104.001 -97.646 2.21251e-07 94.7408 88.0821 93.8426 129.053
Tx-DS-Rx 
12.0458 -18.3613 5.3
-26.4 29.0254 1.20141
-26.5608 24.2219 1.6
4 2 -105.832 163.897 4.78321e-07 88.521 66.018 91.479 62.3369
Tx-R-R-Rx 
12.0458 -18.3613 5.3
43.5264 41.6945 3.54927
-23.4047 31.3168 1.8005
-26.5608 24.2219 1.6
5 3 -106.988 -84.2636 5.09493e-07 88.6115 -109.661 91.3885 -136.929
Tx-R-D-R-Rx 
12.0458 -18.3613 5.3
9.33618 -20.8943 5.21009
-53.6964 -50.282 3.52437
-52.8635 -49.398 3.49493
-26.5608 24.2219 1.6
6 3 -107.276 -173.676 2.18147e-07 77.8684 116.464 92.703 131.234
Tx-F-X-DS-Rx 
12.0458 -18.3613 5.3
-5.81637 2.01827 4.02061
-6.10413 2.34658 4
-28.2482 27.6115 2.41392
-26.5608 24.2219 1.6
7 3 -109.363 -148.999 4.66957e-07 88.485 11.488 91.515 59.6625
Tx-F-X-R-Rx 
12.0458 -18.3613 5.3
39.4327 28.4355 3.86593
42.3614 33.4398 3.71258
45.5427 38.8758 3.546
-26.5608 24.2219 1.6
8 2 -111.02 -145.298 5.08913e-07 88.6099 -109.661 91.3901 -154.101
Tx-D-R-Rx 
12.0458 -18.3613 5.3
-53.6964 -50.282 3.52656
-52.8635 -49.398 3.49709
-26.5608 24.2219 1.6
9 1 -111.394 -174.564 2.16897e-07 86.7369 126.576 93.2631 131.855
Tx-D-Rx 
12.0458 -18.3613 5.3
-28.7763 27.2076 1.81196
-26.5608 24.2219 1.6
10 3 -112.398 46.5471 4.31195e-07 87.9801 9.73744 91.2184 62.2487
Tx-F-X-D-Rx 
12.0458 -18.3613 5.3
38.1841 31.3168 4.10609
38.9501 32.7726 4.0711
40.5067 35.7311 4
-26.5608 24.2219 1.6
11 2 -112.746 -109.271 9.08868e-07 89.2217 136.346 90.7783 135.23
Tx-R-R-Rx 
12.0458 -18.3613 5.3
-102.38 95.1492 3.11041
-104.288 98.3802 3.05943
-26.5608 24.2219 1.6
12 3 -114.211 100.657 1.97515e-07 86.4163 -12.7857 93.5837 127.213
Tx-F-X-D-Rx 
12.0458 -18.3613 5.3
-8.6909 8.94548 3.1526
-10.1645 10.8859 3
-18.9865 22.503 2.08643
-26.5608 24.2219 1.6
13 5 -114.815 60.1085 5.09126e-07 92.1634 -109.661 92.1634 -154.101
Tx-D-R-F-R-X-Rx 
12.0458 -18.3613 5.3
-53.6964 -50.282 2.53919
-52.8635 -49.398 2.49331
-36.0905 -2.451 0.61
-35.7342 -1.45388 0.57
-35.378 -0.456765 0.61
-26.5608 24.2219 1.6
14 4 -115.013 27.638 9.06944e-07 89.22 -89.7045 90.78 -138.228
Tx-R-R-R-D-Rx 
12.0458 -18.3613 5.3
8.81865 -21.2438 5.24109
-94.1952 -72.146 3.67681
-97.1619 -78.0141 3.58729
-26.2175 -42.3473 2.50628
-26.5608 24.2219 1.6
15 1 -115.478 67.3035 1.93402e-07 86.34 -56.4066 93.66 137.011
Tx-D-Rx 
12.0458 -18.3613 5.3
-15.0566 6.90237 2.92999
-26.5608 24.2219 1.6
16 1 -115.694 -116.608 1.92965e-07 86.3317 -42.5308 93.6683 127.157
Tx-D-Rx 
12.0458 -18.3613 5.3
-5.77742 5.15686 3.40815
-26.5608 24.2219 1.6
17 1 -115.881 -160.583 1.9343e-07 86.3405 -52.3097 93.6595 141.598
Tx-D-Rx 
12.0458 -18.3613 5.3
-2.67641 -6.69178 4.0985
-26.5608 24.2219 1.6
18 1 -116.023 -67.7945 1.93837e-07 86.3482 -54.9241 93.6518 140.086
Tx-D-Rx 
12.0458 -18.3613 5.3
-9.05333 -0.71102 3.54438
-26.5608 24.2219 1.6
19 1 -116.624 -33.3553 9.08873e-07 89.2217 136.599 90.7783 135.065
Tx-D-Rx 
12.0458 -18.3613 5.3
-104.663 98.0824 3.06033
-26.5608 24.2219 1.6
20 3 -116.821 -128.732 1.97518e-07 86.4164 -12.8786 93.5836 127.197
Tx-F-X-D-Rx 
12.0458 -18.3613 5.3
-8.68203 8.94992 3.15274
-10.1564 10.8926 3
-18.9525 22.4824 2.08879
-26.5608 24.2219 1.6
21 1 -117.523 -83.0332 1.9382e-07 86.3479 -55.7734 93.6521 139.175
Tx-D-Rx 
12.0458 -18.3613 5.3
-11.3315 1.83496 3.32818
-26.5608 24.2219 1.6
22 3 -118.126 123.855 4.36266e-07 88.3784 32.7534 91.6216 82.8723
Tx-F-X-D-Rx 
12.0458 -18.3613 5.3
16.0567 13.714 4.38487
16.5299 17.4978 4.27691
21.2139 54.9557 3.20821
-26.5608 24.2219 1.6
23 1 -118.598 -15.3178 2.88181e-07 88.28 42.4316 92.7477 109.82
Tx-DS-Rx 
12.0458 -18.3613 5.3
-9.06609 40.2145 2.31177
-26.5608 24.2219 1.6
24 3 -118.661 -179.844 4.31231e-07 87.5598 9.73174 90.7499 62.2423
Tx-F-X-D-Rx 
12.0458 -18.3613 5.3
38.1396 31.2189 4.56665
38.9596 32.7769 4.54361
40.5112 35.725 4.5
-26.5608 24.2219 1.6
25 1 -118.745 169.109 4.49484e-07 88.4261 12.1391 91.5739 62.4783
Tx-D-Rx 
12.0458 -18.3613 5.3
41.9073 38.9491 3.52433
-26.5608 24.2219 1.6
4 25
-82.7614 1.90085e-07 5.54674e-08
1 0 -83.4122 139.764 1.76417e-07 85.9871 -50.2822 94.0129 129.718
Tx-Rx 
12.0458 -18.3613 5.3
-21.6565 22.2076 1.6
2 1 -101.586 45.5489 1.79669e-07 86.0598 -66.6297 93.9402 137.029
Tx-D-Rx 
12.0458 -18.3613 5.3
-15.0217 6.85381 2.75204
-21.6565 22.2076 1.6
3 2 -101.749 -69.5359 4.72603e-07 88.5031 67.0653 91.4969 63.2998
Tx-R-R-Rx 
12.0458 -18.3613 5.3
42.7776 42.7415 3.51267
-16.4218 34.5789 1.95104
-21.6565 22.2076 1.6
4 2 -102.224 -149.784 2.31651e-07 86.945 125.267 93.055 129.089
Tx-D-R-Rx 
12.0458 -18.3613 5.3
-24.479 26.6007 2.20833
-26.4505 28.9868 2.04314
-21.6565 22.2076 1.6
5 1 -102.991 -149.188 1.79669e-07 86.0598 -66.6736 93.9402 137.011
Tx-D-Rx 
12.0458 -18.3613 5.3
-15.0566 6.90237 2.74802
-21.6565 22.2076 1.6
6 1 -103.023 6.7165 2.2139e-07 86.8032 -91.8067 93.1968 163.05
Tx-D-Rx 
12.0458 -18.3613 5.3
-22.603 -7.80141 3.2769
-21.6565 22.2076 1.6
7 2 -104.523 174.04 2.31652e-07 86.945 126.26 93.055 129.284
Tx-D-R-Rx 
12.0458 -18.3613 5.3
-24.6144 26.4537 2.20987
-26.5648 28.8994 2.04292
-21.6565 22.2076 1.6
8 1 -105.15 169.646 1.80023e-07 86.0676 -44.6276 93.9324 106.456
Tx-D-Rx 
12.0458 -18.3613 5.3
9.00137 -8.05422 4.56122
-21.6565 22.2076 1.6
9 3 -106.238 -106.595 4.17657e-07 88.3061 11.3392 91.6939 61.1042
Tx-F-X-D-Rx 
12.0458 -18.3613 5.3
38.3873 29.3647 3.68791
40.6365 33.4398 3.55026
41.4181 34.856 3.50242
-21.6565 22.2076 1.6
10 3 -106.938 104.134 2.35113e-07 92.5626 110.74 93.8339 127.071
Tx-F-X-DS-Rx 
12.0458 -18.3613 5.3
-8.61366 8.9841 3.0033
-8.64335 9.02341 3
-24.7237 30.3078 1.21236
-21.6565 22.2076 1.6
11 3 -107.127 -162.364 4.35613e-07 88.3759 12.4067 91.6241 59.9875
Tx-F-X-D-Rx 
12.0458 -18.3613 5.3
39.1981 28.644 3.7609
41.9683 33.4398 3.60387
43.7976 36.6067 3.50018
-21.6565 22.2076 1.6
12 1 -107.176 135.68 2.21391e-07 86.8032 -91.9927 93.1968 162.898
Tx-D-Rx 
12.0458 -18.3613 5.3
-22.6961 -7.67192 3.26984
-21.6565 22.2076 1.6
13 1 -107.197 -24.9986 1.80023e-07 86.0676 -44.6175 93.9324 106.491
Tx-D-Rx 
12.0458 -18.3613 5.3
8.98706 -8.02947 4.55931
-21.6565 22.2076 1.6
14 3 -107.333 64.1304 4.17658e-07 88.3061 11.37 91.6939 61.1368
Tx-F-X-D-Rx 
12.0458 -18.3613 5.3
38.3691 29.3959 3.68736
40.5981 33.4398 3.55081
41.3956 34.8868 3.50195
-21.6565 22.2076 1.6
15 3 -107.523 129.888 4.5062e-07 88.43 13.2355 91.57 59.1374
Tx-F-X-D-Rx 
12.0458 -18.3613 5.3
39.8439 28.1549 3.81479
42.7706 33.0522 3.65842
45.7666 38.0656 3.49835
-21.6565 22.2076 1.6
16 3 -108.218 9.88096 4.35613e-07 88.3759 12.4366 91.6241 60.0189
Tx-F-X-D-Rx 
12.0458 -18.3613 5.3
39.1753 28.6643 3.76073
41.9303 33.4398 3.60441
43.7751 36.6375 3.49974
-21.6565 22.2076 1.6
17 1 -109.456 18.2383 2.10292e-07 86.6343 123.526 93.3657 129.173
Tx-D-Rx 
12.0458 -18.3613 5.3
-24.4734 26.4593 1.89994
-21.6565 22.2076 1.6
18 1 -109.759 -75.009 1.76639e-07 85.9921 -47.0378 94.0079 127.157
Tx-D-Rx 
12.0458 -18.3613 5.3
-5.77742 5.15686 3.23248
-21.6565 22.2076 1.6
19 1 -112.402 173.144 3.41528e-07 87.9284 -91.2861 92.0716 -149.241
Tx-D-Rx 
12.0458 -18.3613 5.3
-23.036 -39.2398 3.82327
-21.6565 22.2076 1.6
20 1 -112.518 -147.746 2.81205e-07 88.3056 55.2686 92.8158 110.073
Tx-DS-Rx 
12.0458 -18.3613 5.3
-9.29463 40.0394 2.24186
-21.6565 22.2076 1.6
21 2 -112.555 -72.7651 4.56261e-07 88.4495 21.4831 91.5505 64.8266
Tx-R-D-Rx 
12.0458 -18.3613 5.3
41.5624 44.4404 3.42164
32.1964 43.4025 3.16656
-21.6565 22.2076 1.6
22 1 -112.687 131.177 2.10295e-07 86.6344 123.974 93.3656 129.212
Tx-D-Rx 
12.0458 -18.3613 5.3
-24.5057 26.436 1.89985
-21.6565 22.2076 1.6
23 3 -112.806 46.942 4.72604e-07 88.5031 66.926 91.4969 63.4771
Tx-D-R-R-Rx 
12.0458 -18.3613 5.3
39.869 37.3877 3.67181
42.6607 42.9049 3.51023
-16.3691 34.6193 1.95255
-21.6565 22.2076 1.6
24 7 -112.847 28.1558 2.37812e-07 69.4907 136.659 90.5209 130.671
Tx-F-X-F-X-DS-F-X-Rx 
12.0458 -18.3613 5.3
-5.50924 2.06946 5.0551
-8.96216 6.08801 5.00694
-24.804 24.5249 4.78594
-26.14 26.0798 4.7673
-27.7703 27.9771 4.74456
-26.1796 26.476 3.92642
-24.3784 24.7763 3
-21.6565 22.2076 1.6
25 1 -112.911 -80.9334 1.79486e-07 86.0558 -61.1933 93.9442 140.086
Tx-D-Rx 
12.0458 -18.3613 5.3
-9.05333 -0.71102 3.40336
-21.6565 22.2076 1.6
5 25
-84.9106 1.77671e-07 5.7419e-08
1 0 -82.4033 -34.86 1.58129e-07 85.5221 -50.3832 94.4779 129.617
Tx-Rx 
12.0458 -18.3613 5.3
-18.0806 18.0335 1.6
2 1 -91.5986 63.0585 2.49903e-07 87.1683 126.026 92.8317 128.806
Tx-R-Rx 
12.0458 -18.3613 5.3
-26.1907 29.1855 2.28205
-18.0806 18.0335 1.6
3 2 -96.1985 152.284 2.49906e-07 87.1683 126.754 92.8317 128.927
Tx-R-D-Rx 
12.0458 -18.3613 5.3
-26.2935 29.1069 2.28193
-24.479 26.6007 2.12889
-18.0806 18.0335 1.6
4 1 -96.6222 141.258 1.62106e-07 85.6322 -67.3809 94.3678 139.175
Tx-D-Rx 
12.0458 -18.3613 5.3
-11.3315 1.83496 2.94036
-18.0806 18.0335 1.6
5 1 -97.7518 -46.6411 1.62107e-07 85.6322 -67.3369 94.3678 139.201
Tx-D-Rx 
12.0458 -18.3613 5.3
-11.2966 1.7864 2.9448
-18.0806 18.0335 1.6
6 2 -101.809 -97.4069 4.81057e-07 88.5294 69.0215 91.4706 65.256
Tx-R-R-Rx 
12.0458 -18.3613 5.3
41.2141 44.9273 3.51097
-9.7876 39.6618 2.19467
-18.0806 18.0335 1.6
7 3 -104.148 154.934 4.44103e-07 88.407 14.8289 91.593 56.3216
Tx-F-X-R-Rx 
12.0458 -18.3613 5.3
45.3338 31.5928 3.63057
46.6608 33.5842 3.56402
47.947 35.5143 3.49951
-18.0806 18.0335 1.6
8 1 -106.557 -8.09865 1.61804e-07 85.624 -43.9287 94.376 106.456
Tx-D-Rx 
12.0458 -18.3613 5.3
9.00137 -8.05422 4.47757
-18.0806 18.0335 1.6
9 1 -107.718 72.228 1.6168e-07 85.6206 -64.2848 94.3794 140.086
Tx-D-Rx 
12.0458 -18.3613 5.3
-9.05333 -0.71102 3.19332
-18.0806 18.0335 1.6
10 3 -108.784 99.8925 6.68486e-07 88.9418 -19.0867 91.0582 63.1104
Tx-R-R-R-Rx 
12.0458 -18.3613 5.3
39.8997 36.5666 4.1624
-24.4513 26.5046 2.95929
12.336 7.5087 2.19453
-18.0806 18.0335 1.6
11 1 -109.013 90.4055 1.5837e-07 85.5289 -46.3047 94.4711 127.157
Tx-D-Rx 
12.0458 -18.3613 5.3
-5.77742 5.15686 2.99259
-18.0806 18.0335 1.6
12 1 -109.245 150.306 1.61805e-07 85.624 -43.9167 94.376 106.491
Tx-D-Rx 
12.0458 -18.3613 5.3
8.98706 -8.02947 4.47545
-18.0806 18.0335 1.6
13 1 -110.914 162.844 2.52292e-07 91.7358 117.532 93.8678 126.864
Tx-DS-Rx 
12.0458 -18.3613 5.3
-24.5488 30.4416 1.17596
-18.0806 18.0335 1.6
14 1 -111.402 -146.361 1.61682e-07 85.6207 -64.2653 94.3793 140.106
Tx-D-Rx 
12.0458 -18.3613 5.3
-9.03003 -0.743088 3.19629
-18.0806 18.0335 1.6
15 1 -111.625 78.0158 2.83826e-07 89.8135 70.092 93.3604 111.333
Tx-DS-Rx 
12.0458 -18.3613 5.3
-10.4246 39.1737 1.67321
-18.0806 18.0335 1.6
16 3 -112.118 34.8514 4.81059e-07 88.5294 68.8218 91.4706 65.3369
Tx-R-D-R-Rx 
12.0458 -18.3613 5.3
41.1482 45.0194 3.50953
8.47454 41.6928 2.66638
-9.66444 39.7561 2.19806
-18.0806 18.0335 1.6
17 2 -112.128 97.3538 6.27496e-07 88.8726 -117.267 91.1274 172.868
Tx-R-D-Rx 
12.0458 -18.3613 5.3
-59.1683 -9.45009 3.88768
-52.8218 -49.3704 3.09224
-18.0806 18.0335 1.6
18 1 -112.579 -62.7193 3.28267e-07 87.8446 -94.9096 92.1554 -149.192
Tx-D-Rx 
12.0458 -18.3613 5.3
-23.0021 -39.2603 3.76424
-18.0806 18.0335 1.6
19 1 -113.609 2.83216 1.60363e-07 85.5846 -58.0765 94.4154 141.598
Tx-D-Rx 
12.0458 -18.3613 5.3
-2.67641 -6.69178 3.8494
-18.0806 18.0335 1.6
20 1 -113.793 35.3426 3.28271e-07 87.8447 -94.945 92.1553 -149.241
Tx-D-Rx 
12.0458 -18.3613 5.3
-23.036 -39.2398 3.76355
-18.0806 18.0335 1.6
21 1 -113.912 16.6913 2.03332e-07 86.519 -90.4762 93.481 167.62
Tx-D-Rx 
12.0458 -18.3613 5.3
