# <Transmitter Set: Tx: 1 TX2 - Point 1> 
# <Receiver Set: Rx: 9 Walk2 > 
# <number of receiver points>
# <receiver point number> <number of paths for this point>
#	rx pt summary:
#	<received power (dBm)>
#	<mean time of arrival (sec)>
#	<delay spread (sec)>
#		path summary:
#		<path number>
#		<total interactions for path> (not including Tx and Rx)
#		<received power(dBm)>
#		<phase(deg)>
#		<time of arrival(sec)>
#		<arrival theta(deg)>
#		<arrival phi(deg)>
#		<departure theta(deg)>
#		<departure phi(deg)>
#			interactions summary:
#			<interaction description> (Tx:transmitter, Rx:receiver, T:transmission, R:reflection, D:diffraction)
#			<cartesian locations of interactions> (including Tx and Rx)
18
1 25
-78.8909 2.3646e-07 2.84627e-08
1 0 -78.0628 18.9457 2.34035e-07 86.9761 -45.2128 93.0239 134.787
Tx-Rx 
14.7485 -18.758 5.3
-34.5942 30.9526 1.6
2 5 -99.7642 171.132 4.34894e-07 88.3733 -36.0511 91.6267 -79.5215
Tx-R-F-X-R-R-Rx 
14.7485 -18.758 5.3
14.9953 -20.0922 5.26147
19.4515 -22.6417 5.11566
20.7465 -23.3826 5.07329
39.1753 -33.9259 4.47032
35.6278 -20.1624 4.06667
-34.5942 30.9526 1.6
3 1 -108.987 114.719 2.34535e-07 86.9826 -41.8338 93.0174 130.639
Tx-D-Rx 
14.7485 -18.758 5.3
-5.77742 5.15686 3.63872
-34.5942 30.9526 1.6
4 1 -109.032 154.985 2.34635e-07 86.9839 -32.7699 93.0161 133.438
Tx-D-Rx 
14.7485 -18.758 5.3
-28.7763 27.2076 1.96457
-34.5942 30.9526 1.6
5 3 -110.443 77.0545 8.81322e-07 89.1974 136.227 90.8026 135.624
Tx-F-X-D-Rx 
14.7485 -18.758 5.3
-6.54055 2.0726 4.88272
-8.77154 4.25553 4.83899
-104.663 98.0824 2.95946
-34.5942 30.9526 1.6
6 1 -110.882 92.2292 2.34947e-07 86.9879 -50.9109 93.0121 139.274
Tx-D-Rx 
14.7485 -18.758 5.3
-15.0566 6.90237 3.23048
-34.5942 30.9526 1.6
7 1 -111.057 -61.2991 2.35726e-07 86.9978 -49.7062 93.0022 145.299
Tx-D-Rx 
14.7485 -18.758 5.3
-2.67641 -6.69178 4.18842
-34.5942 30.9526 1.6
8 1 -112.019 -81.2033 2.98081e-07 90.601 -44.6455 116.415 -40.2841
Tx-DS-Rx 
14.7485 -18.758 5.3
21.7055 -24.6546 0.76993
-34.5942 30.9526 1.6
9 3 -112.138 -83.9054 3.00017e-07 90.286 -43.5251 113.072 -31.1384
Tx-F-X-DS-Rx 
14.7485 -18.758 5.3
19.0584 -21.3618 3.15512
19.3701 -21.5501 3
22.9798 -23.731 1.20359
-34.5942 30.9526 1.6
10 3 -114.473 4.58978 2.39598e-07 87.0464 -33.1419 92.9536 122.077
Tx-D-F-X-Rx 
14.7485 -18.758 5.3
-3.8089 10.8519 3.497
-11.3622 15.7837 3.03157
-11.8744 16.1181 3
-34.5942 30.9526 1.6
11 2 -114.881 30.7501 2.9928e-07 90.6295 -44.5931 115.703 -76.1337
Tx-R-DS-Rx 
14.7485 -18.758 5.3
15.1219 -20.2708 4.54998
21.7649 -24.6115 0.730374
-34.5942 30.9526 1.6
12 2 -115.058 -122.684 3.00793e-07 90.2488 -43.7568 112.075 -82.4481
Tx-R-DS-Rx 
14.7485 -18.758 5.3
14.9093 -19.9711 4.80373
22.7156 -23.9225 1.25544
-34.5942 30.9526 1.6
13 7 -115.799 -157.534 4.17659e-07 88.6993 -43.8274 93.0931 -40.2984
Tx-F-X-DS-F-X-F-X-Rx 
14.7485 -18.758 5.3
19.5721 -22.8485 4.95824
20.0474 -23.2515 4.92457
35.7323 -36.5525 3.8133
21.8561 -23.233 3.37659
19.1988 -20.6824 3.29296
18.7859 -20.286 3.27996
17.0311 -18.6016 3.22474
-34.5942 30.9526 1.6
14 6 -115.916 91.1769 4.34905e-07 88.3733 -35.251 91.6267 -79.3206
Tx-R-F-X-R-R-D-Rx 
14.7485 -18.758 5.3
15.0019 -20.1015 5.26117
19.4746 -22.6813 5.11454
20.6635 -23.367 5.07556
39.087 -33.9933 4.47156
35.3719 -19.786 4.05452
-13.2385 15.8594 2.34266
-34.5942 30.9526 1.6
15 5 -116.017 162.459 4.34901e-07 88.3733 -36.2772 91.6267 -79.9891
Tx-R-F-X-R-D-Rx 
14.7485 -18.758 5.3
14.9803 -20.0711 5.26213
19.3988 -22.5514 5.11823
20.9463 -23.42 5.06783
39.3817 -33.7684 4.46744
36.2043 -21.0107 4.09406
-34.5942 30.9526 1.6
16 4 -116.548 10.5552 4.33314e-07 88.3673 -36.2772 91.6327 -30.7147
Tx-F-X-R-D-Rx 
14.7485 -18.758 5.3
19.0549 -21.3164 5.15722
22.0968 -23.1236 5.05637
39.6586 -33.5572 4.47413
36.2043 -21.0107 4.1032
-34.5942 30.9526 1.6
17 2 -117.715 -113.01 4.26238e-07 88.3402 -33.2171 91.6598 -42.7772
Tx-R-D-Rx 
14.7485 -18.758 5.3
34.772 -37.2851 4.50951
16.8036 -2.70302 3.38024
-34.5942 30.9526 1.6
18 5 -117.807 -45.2843 2.39549e-07 87.0458 -34.4554 92.9542 120.651
Tx-D-F-X-F-X-Rx 
14.7485 -18.758 5.3
-1.0853 7.96098 3.69719
-7.71325 12.5086 3.28238
-7.90826 12.6425 3.27017
-11.3622 15.0123 3.054
-12.225 15.6043 3
-34.5942 30.9526 1.6
19 3 -118.131 12.1261 8.02701e-07 89.1187 12.6831 90.8813 44.5268
Tx-D-R-R-Rx 
14.7485 -18.758 5.3
30.0038 -3.75261 4.97085
-75.7262 -56.7118 3.15187
-32.1551 31.5015 1.63846
-34.5942 30.9526 1.6
20 1 -118.839 173.477 2.59257e-07 87.2705 -33.1974 92.7295 82.8495
Tx-D-Rx 
14.7485 -18.758 5.3
16.7686 -2.65492 4.52628
-34.5942 30.9526 1.6
21 2 -119.116 54.536 4.26238e-07 88.3402 -33.2094 91.6598 -42.7837
Tx-R-D-Rx 
14.7485 -18.758 5.3
34.7695 -37.287 4.50953
16.783 -2.67967 3.37936
-34.5942 30.9526 1.6
22 7 -119.182 -98.4973 1.12824e-06 90.9286 -12.2121 90.9286 70.1987
Tx-R-R-D-F-R-X-R-Rx 
14.7485 -18.758 5.3
38.8621 48.2155 4.1462
0.54604 47.579 3.52505
-33.5961 -71.2086 1.52167
-32.4406 -23.6155 0.75
-32.3807 -21.1484 0.71
-32.3723 -20.8045 0.715576
-31.1339 30.2037 1.54261
-34.5942 30.9526 1.6
23 3 -119.196 144.548 3.56309e-07 88.9089 -35.8772 95.7488 -2.14154
Tx-F-X-DS-Rx 
14.7485 -18.758 5.3
17.0753 -18.845 5.06558
20.7925 -18.984 4.6911
35.1929 -19.5225 3.24036
-34.5942 30.9526 1.6
24 3 -119.362 141.099 4.29223e-07 88.0824 -39.9382 90.7592 -27.422
Tx-F-X-DS-Rx 
14.7485 -18.758 5.3
19.029 -20.9788 5.2361
22.494 -22.7767 5.18437
41.1214 -32.4413 4.9063
-34.5942 30.9526 1.6
25 3 -119.508 147.035 8.02703e-07 89.1187 12.6729 90.8813 44.4218
Tx-D-R-R-Rx 
14.7485 -18.758 5.3
30.0271 -3.78468 4.97094
-75.7127 -56.7252 3.15196
-32.1548 31.5011 1.63846
-34.5942 30.9526 1.6
2 25
-77.8753 2.1973e-07 3.29586e-08
1 0 -77.2963 -85.2927 2.15848e-07 86.7211 -44.651 93.2789 135.349
Tx-Rx 
14.7485 -18.758 5.3
-31.1957 26.6298 1.6
2 1 -99.21 -101.232 2.61586e-07 87.2948 -6.11814 92.7052 104.616
Tx-D-Rx 
14.7485 -18.758 5.3
3.89314 22.8687 3.26741
-31.1957 26.6298 1.6
3 3 -101.596 98.1243 4.7749e-07 88.5184 9.158 91.4816 61.9925
Tx-F-X-R-Rx 
14.7485 -18.758 5.3
39.722 28.1955 3.92448
42.4885 33.397 3.77211
45.4623 38.9881 3.60831
-31.1957 26.6298 1.6
4 3 -104.78 121.301 4.42456e-07 88.0977 7.25873 91.2353 64.7286
Tx-F-X-D-Rx 
14.7485 -18.758 5.3
37.9824 30.4572 4.12645
39.1097 32.8452 4.0695
40.4858 35.76 4
-31.1957 26.6298 1.6
5 1 -105.773 62.0164 2.18042e-07 86.7541 -40.7893 93.2459 118.232
Tx-D-Rx 
14.7485 -18.758 5.3
9.00137 -8.05422 4.611
-31.1957 26.6298 1.6
6 2 -106.501 5.00625 4.45779e-07 88.0934 7.49884 91.212 -173.784
Tx-R-D-Rx 
14.7485 -18.758 5.3
14.0989 -18.8287 5.28618
40.2832 36.0387 4
-31.1957 26.6298 1.6
7 1 -107.972 81.697 2.61586e-07 87.2948 -6.12292 92.7052 104.612
Tx-D-Rx 
14.7485 -18.758 5.3
3.89713 22.8653 3.26761
-31.1957 26.6298 1.6
8 1 -109.332 -41.6453 2.16538e-07 86.7315 -40.1906 93.2685 130.639
Tx-D-Rx 
14.7485 -18.758 5.3
-5.77742 5.15686 3.50022
-31.1957 26.6298 1.6
9 1 -109.517 -170.676 2.1663e-07 86.7329 -50.7134 93.2671 139.274
Tx-D-Rx 
14.7485 -18.758 5.3
-15.0566 6.90237 3.05495
-31.1957 26.6298 1.6
10 3 -109.524 164.061 2.22323e-07 86.8167 -1.70411 93.1833 131.032
Tx-F-X-D-Rx 
14.7485 -18.758 5.3
-9.97573 9.65148 3.20538
-10.2303 9.94402 3.18381
-24.5804 26.433 1.96808
-31.1957 26.6298 1.6
11 1 -110.05 163.175 2.1742e-07 86.7448 -49.4405 93.2552 145.299
Tx-D-Rx 
14.7485 -18.758 5.3
-2.67641 -6.69178 4.09454
-31.1957 26.6298 1.6
12 1 -110.546 -42.6171 4.4435e-07 88.4079 8.59734 91.5921 66.0181
Tx-D-Rx 
14.7485 -18.758 5.3
39.708 37.3496 3.59315
-31.1957 26.6298 1.6
13 1 -110.581 77.254 2.61586e-07 87.2948 -6.11325 92.7052 104.62
Tx-D-Rx 
14.7485 -18.758 5.3
3.88922 22.8721 3.2672
-31.1957 26.6298 1.6
14 1 -111.338 -75.3343 2.79895e-07 90.6454 -44.1115 116.415 -40.288
Tx-DS-Rx 
14.7485 -18.758 5.3
21.7049 -24.655 0.770028
-31.1957 26.6298 1.6
15 3 -111.464 -18.7693 2.81881e-07 90.3069 -42.9114 113.072 -31.1476
Tx-F-X-DS-Rx 
14.7485 -18.758 5.3
19.0585 -21.3628 3.15485
19.3696 -21.5508 3
22.9785 -23.7319 1.20381
-31.1957 26.6298 1.6
16 3 -111.508 -19.3248 4.42489e-07 87.7019 7.25305 90.7603 64.7217
Tx-F-X-D-Rx 
14.7485 -18.758 5.3
37.9785 30.4337 4.57807
39.1193 32.8495 4.54262
40.4906 35.7534 4.5
-31.1957 26.6298 1.6
17 1 -111.769 44.7722 4.44354e-07 88.4079 8.62436 91.5921 66.0489
Tx-D-Rx 
14.7485 -18.758 5.3
39.6855 37.3804 3.59264
-31.1957 26.6298 1.6
18 2 -112.396 -50.0544 4.47634e-07 88.4196 8.59734 91.5804 -174.779
Tx-R-D-Rx 
14.7485 -18.758 5.3
14.0913 -18.818 5.28179
39.708 37.3496 3.57852
-31.1957 26.6298 1.6
19 1 -112.404 -156.42 2.18044e-07 86.7541 -40.7938 93.2459 118.199
Tx-D-Rx 
14.7485 -18.758 5.3
9.02201 -8.07758 4.61272
-31.1957 26.6298 1.6
20 2 -113.032 -150.188 4.45811e-07 87.6967 7.49321 90.7459 -173.778
Tx-R-D-Rx 
14.7485 -18.758 5.3
14.099 -18.8288 5.29149
40.288 36.0322 4.5
-31.1957 26.6298 1.6
21 1 -113.356 -123.123 2.22406e-07 86.8178 -29.947 93.1822 122.077
Tx-D-Rx 
14.7485 -18.758 5.3
-3.8089 10.8519 3.35721
-31.1957 26.6298 1.6
22 3 -113.375 91.6835 8.99496e-07 89.2136 135.797 90.7864 135.624
Tx-F-X-D-Rx 
14.7485 -18.758 5.3
-6.54055 2.0726 4.89116
-8.77154 4.25553 4.84831
-104.663 98.0824 3.00676
-31.1957 26.6298 1.6
23 3 -113.416 122.476 4.6034e-07 88.4632 9.56555 91.5368 64.7968
Tx-F-X-D-Rx 
14.7485 -18.758 5.3
38.0217 30.693 3.83371
39.0141 32.8017 3.77119
41.9073 38.9491 3.58891
-31.1957 26.6298 1.6
24 2 -113.442 59.7001 4.47637e-07 88.4196 8.62436 91.5804 -174.81
Tx-R-D-Rx 
14.7485 -18.758 5.3
14.0911 -18.8177 5.28179
39.6855 37.3804 3.57802
-31.1957 26.6298 1.6
25 1 -113.975 121.493 2.99623e-07 87.6385 -26.3777 92.3615 44.6139
Tx-D-Rx 
14.7485 -18.758 5.3
29.9948 -3.71572 4.41674
-31.1957 26.6298 1.6
3 25
-78.0635 2.16173e-07 5.62209e-08
1 0 -76.5469 34.7626 1.99295e-07 86.4484 -46.1354 93.5516 133.865
Tx-Rx 
14.7485 -18.758 5.3
-26.5608 24.2219 1.6
2 1 -83.3018 164.876 2.23922e-07 86.8394 121.681 93.1606 133.151
Tx-R-Rx 
14.7485 -18.758 5.3
-28.523 27.4013 1.8063
-26.5608 24.2219 1.6
3 3 -97.214 -66.8103 2.04125e-07 86.5325 -12.7857 93.4675 129.269
Tx-F-X-D-Rx 
14.7485 -18.758 5.3
-8.13079 9.22554 3.10981
-9.27793 10.6286 3
-18.9865 22.503 2.07062
-26.5608 24.2219 1.6
4 1 -97.3508 97.9861 2.28388e-07 96.5537 87.8542 93.8594 130.711
Tx-DS-Rx 
14.7485 -18.758 5.3
-26.3803 29.0405 1.04603
-26.5608 24.2219 1.6
5 1 -98.1122 -56.778 2.45568e-07 87.1183 -2.55618 92.8817 104.608
Tx-D-Rx 
14.7485 -18.758 5.3
3.90118 22.862 3.13493
-26.5608 24.2219 1.6
6 3 -98.6866 7.38958 4.29569e-07 88.3531 8.89082 91.6469 63.5525
Tx-F-X-D-Rx 
14.7485 -18.758 5.3
38.5948 29.1803 3.76057
40.7137 33.4398 3.62378
41.4181 34.856 3.5783
-26.5608 24.2219 1.6
7 3 -98.7744 98.1303 2.04126e-07 86.5325 -12.8786 93.4675 129.255
Tx-F-X-D-Rx 
14.7485 -18.758 5.3
-8.12255 9.22966 3.10994
-9.27071 10.6347 3
-18.9525 22.4824 2.07291
-26.5608 24.2219 1.6
8 5 -99.2667 -51.61 4.00028e-07 88.2314 -35.7097 91.7686 -79.8629
Tx-R-F-X-R-R-Rx 
14.7485 -18.758 5.3
14.9843 -20.0767 5.25863
19.4129 -22.5755 5.10163
20.8915 -23.4098 5.04921
39.3259 -33.811 4.39565
36.0513 -20.7855 3.98094
-26.5608 24.2219 1.6
9 3 -99.6874 -107.955 4.47167e-07 88.4179 10.0106 91.5821 62.346
Tx-F-X-D-Rx 
14.7485 -18.758 5.3
39.4631 28.4084 3.82928
42.0996 33.4398 3.67239
43.7751 36.6375 3.57268
-26.5608 24.2219 1.6
10 3 -99.7643 178.439 4.29569e-07 88.3531 8.91905 91.6469 63.5849
Tx-F-X-D-Rx 
14.7485 -18.758 5.3
38.5714 29.2011 3.76033
40.6769 33.4398 3.62425
41.3956 34.8868 3.5778
-26.5608 24.2219 1.6
11 1 -99.9453 -14.9889 2.24646e-07 81.7495 117.191 92.8536 132.883
Tx-DS-Rx 
14.7485 -18.758 5.3
-28.287 27.5819 2.14773
-26.5608 24.2219 1.6
12 3 -100.292 18.1494 4.63622e-07 88.4741 10.443 91.5259 60.7075
Tx-F-X-R-Rx 
14.7485 -18.758 5.3
40.8741 27.8115 3.87757
43.3897 32.2956 3.74061
46.4049 37.6703 3.57644
-26.5608 24.2219 1.6
13 3 -100.818 64.4212 4.47167e-07 88.4179 9.98316 91.5821 62.3146
Tx-F-X-D-Rx 
14.7485 -18.758 5.3
39.4856 28.3884 3.82948
42.136 33.4398 3.67192
43.7976 36.6067 3.57315
-26.5608 24.2219 1.6
14 2 -101.299 -177.148 4.42496e-07 88.4012 68.9791 91.5988 66.0489
Tx-D-R-Rx 
14.7485 -18.758 5.3
39.6855 37.3804 3.58546
-24.0133 30.8512 1.79822
-26.5608 24.2219 1.6
15 4 -102.29 -146.867 4.75385e-07 88.5118 67.0552 91.4882 63.3741
Tx-F-X-R-R-Rx 
14.7485 -18.758 5.3
38.7238 29.0656 3.9102
40.9168 33.4398 3.78309
44.4252 40.4381 3.57971
-23.6304 31.1441 1.79528
-26.5608 24.2219 1.6
16 2 -102.34 -19.4969 4.42497e-07 88.4012 69.0056 91.5988 66.0181
Tx-D-R-Rx 
14.7485 -18.758 5.3
39.708 37.3496 3.586
-24.0183 30.8474 1.79808
-26.5608 24.2219 1.6
17 3 -102.379 -120.232 4.61896e-07 88.4684 10.8355 91.5316 61.3713
Tx-F-X-D-Rx 
14.7485 -18.758 5.3
40.2777 28.0103 3.87532
42.9262 32.8621 3.72753
45.7666 38.0656 3.56901
-26.5608 24.2219 1.6
18 4 -103.352 -24.3861 4.39111e-07 88.3889 32.7362 91.6111 166.396
Tx-R-F-X-D-Rx 
14.7485 -18.758 5.3
13.9037 -18.5535 5.27555
17.7274 19.8061 4.19128
18.0316 22.8582 4.10501
21.23 54.9458 3.19801
-26.5608 24.2219 1.6
19 3 -103.495 47.5179 4.61897e-07 88.4684 10.8087 91.5316 61.3407
Tx-F-X-D-Rx 
14.7485 -18.758 5.3
40.3051 28.0011 3.87519
42.9476 32.8359 3.72787
45.7892 38.0348 3.56945
-26.5608 24.2219 1.6
20 6 -103.824 -37.3317 4.23818e-07 88.3307 111.515 91.6693 -78.8889
Tx-R-F-X-R-R-R-Rx 
14.7485 -18.758 5.3
15.0164 -20.122 5.25949
19.5252 -22.768 5.10714
20.4906 -23.3346 5.07451
38.8982 -34.1373 4.45252
34.8048 -18.9515 3.99417
-27.9784 27.8179 1.71265
-26.5608 24.2219 1.6
21 4 -103.88 148.695 4.39111e-07 88.3889 32.7534 91.6111 166.383
Tx-R-F-X-D-Rx 
14.7485 -18.758 5.3
13.9035 -18.5533 5.27555
17.7225 19.8477 4.19013
18.021 22.8501 4.10526
21.2139 54.9557 3.19778
-26.5608 24.2219 1.6
22 1 -104.959 129.022 2.45569e-07 87.1183 -2.5503 92.8817 104.612
Tx-D-Rx 
14.7485 -18.758 5.3
3.89713 22.8653 3.13472
-26.5608 24.2219 1.6
23 4 -105.316 -79.1139 4.67066e-07 88.4853 10.6432 91.5147 -169.803
Tx-R-F-X-R-Rx 
14.7485 -18.758 5.3
14.1279 -18.8696 5.28333
40.5854 27.9077 3.8623
43.199 32.5286 3.72192
46.2386 37.9028 3.55866
-26.5608 24.2219 1.6
24 3 -105.501 34.6368 9.16218e-07 89.2279 136.599 90.7721 135.624
Tx-F-X-D-Rx 
14.7485 -18.758 5.3
-6.54055 2.0726 4.89862
-8.77154 4.25553 4.85656
-104.663 98.0824 3.04862
-26.5608 24.2219 1.6
25 5 -105.779 -116.367 4.2227e-07 88.3246 111.987 91.6754 -30.8784
Tx-F-X-R-R-R-Rx 
14.7485 -18.758 5.3
19.0563 -21.3339 5.15319
22.0697 -23.1359 5.05049
39.5877 -33.6113 4.45348
35.9933 -20.7003 4.06148
-28.0047 27.7979 1.7128
-26.5608 24.2219 1.6
4 25
-77.0349 1.89943e-07 3.87512e-08
1 0 -75.7662 -13.4847 1.83283e-07 86.1376 -48.3734 93.8624 131.627
Tx-Rx 
14.7485 -18.758 5.3
-21.6565 22.2076 1.6
2 1 -95.9375 -84.6702 1.87254e-07 86.2197 -66.6736 93.7803 139.274
Tx-D-Rx 
14.7485 -18.758 5.3
-15.0566 6.90237 2.70131
-21.6565 22.2076 1.6
3 1 -96.7582 73.6916 1.83319e-07 86.1384 -47.0378 93.8616 130.639
Tx-D-Rx 
14.7485 -18.758 5.3
-5.77742 5.15686 3.17271
-21.6565 22.2076 1.6
4 5 -97.1528 107.154 4.48855e-07 88.4239 11.666 91.5761 59.4845
Tx-F-X-F-X-R-Rx 
14.7485 -18.758 5.3
42.395 28.1475 3.80186
43.8495 30.6152 3.72304
45.3216 33.1129 3.64327
45.4576 33.3435 3.6359
47.2837 36.4417 3.53695
-21.6565 22.2076 1.6
5 1 -97.4649 75.1768 1.87255e-07 86.2197 -66.6297 93.7803 139.294
Tx-D-Rx 
14.7485 -18.758 5.3
-15.0217 6.85381 2.70516
-21.6565 22.2076 1.6
6 1 -97.651 84.8533 2.29152e-07 86.9116 1.45187 93.0884 104.599
Tx-D-Rx 
14.7485 -18.758 5.3
3.90944 22.8556 2.97984
-21.6565 22.2076 1.6
7 1 -98.4712 61.8082 2.1536e-07 86.7136 39.8659 93.2864 122.103
Tx-D-Rx 
14.7485 -18.758 5.3
-14.6325 28.0735 2.12547
-21.6565 22.2076 1.6
8 1 -100.014 -154.263 2.42136e-07 93.2975 108.162 93.8221 128.44
Tx-DS-Rx 
14.7485 -18.758 5.3
-24.396 30.5585 1.09362
-21.6565 22.2076 1.6
9 6 -101.134 169.771 2.38443e-07 87.0321 124.872 92.9679 130.703
Tx-F-X-F-X-R-D-Rx 
14.7485 -18.758 5.3
-8.96464 8.80861 3.41473
-10.4132 10.4925 3.29957
-13.6614 14.2686 3.04133
-14.1812 14.8729 3
-26.3731 29.046 2.03071
-24.6369 26.4845 1.87027
-21.6565 22.2076 1.6
10 2 -101.813 175.476 3.17841e-07 87.7739 -74.1425 92.2261 117.865
Tx-R-D-Rx 
14.7485 -18.758 5.3
9.12248 -8.1165 4.83209
-6.52553 -31.06 3.75255
-21.6565 22.2076 1.6
11 4 -102.407 -4.39912 4.52332e-07 88.436 11.8633 91.564 -168.583
Tx-R-F-X-R-Rx 
14.7485 -18.758 5.3
14.1364 -18.8816 5.28295
41.9208 27.8888 3.79759
43.8163 31.0797 3.69626
47.1296 36.6571 3.51913
-21.6565 22.2076 1.6
12 2 -102.55 -9.09381 3.17841e-07 87.7739 -74.1611 92.2261 117.891
Tx-R-D-Rx 
14.7485 -18.758 5.3
9.11616 -8.11615 4.83196
-6.54506 -31.0568 3.75222
-21.6565 22.2076 1.6
13 1 -104.47 -89.7834 2.29152e-07 86.9116 1.45921 93.0884 104.604
Tx-D-Rx 
14.7485 -18.758 5.3
3.90528 22.8587 2.97962
-21.6565 22.2076 1.6
14 1 -104.847 -152.961 2.73717e-07 89.1632 58.2309 93.1249 115.026
Tx-DS-Rx 
14.7485 -18.758 5.3
-11.8043 38.1166 1.87331
-21.6565 22.2076 1.6
15 1 -105.281 110.071 1.84689e-07 86.1671 -44.6276 93.8329 118.232
Tx-D-Rx 
14.7485 -18.758 5.3
9.00137 -8.05422 4.48605
-21.6565 22.2076 1.6
16 6 -106.082 -128.652 4.36254e-07 88.3783 113.186 91.6217 -77.2023
Tx-R-F-X-R-R-R-Rx 
14.7485 -18.758 5.3
15.0781 -20.209 5.25787
19.7367 -23.1306 5.10219
19.8792 -23.2199 5.09743
38.1714 -34.6918 4.48614
32.3299 -15.3102 3.91305
-25.0266 30.076 1.84234
-21.6565 22.2076 1.6
17 1 -106.153 70.4508 1.83834e-07 86.1492 -41.8083 93.8508 128.614
Tx-D-Rx 
14.7485 -18.758 5.3
-8.75438 10.6685 2.76509
-21.6565 22.2076 1.6
18 3 -106.235 117.419 2.41591e-07 80.3574 139.672 92.0449 132.704
Tx-F-X-DS-Rx 
14.7485 -18.758 5.3
-4.61677 2.22534 4.28047
-8.85753 6.82043 4.0572
-28.1293 27.7025 3.04259
-21.6565 22.2076 1.6
19 2 -107.214 -59.6737 2.69838e-07 87.3776 94.1664 92.6224 104.641
Tx-D-R-Rx 
14.7485 -18.758 5.3
3.86696 22.8943 3.32826
-22.3773 32.1028 2.05441
-21.6565 22.2076 1.6
20 1 -107.579 80.4909 1.87348e-07 86.2216 -61.1933 93.7784 142.83
Tx-D-Rx 
14.7485 -18.758 5.3
-9.05333 -0.71102 3.32734
-21.6565 22.2076 1.6
21 1 -107.624 -40.5218 1.8413e-07 86.1555 -37.021 93.8445 128.954
Tx-D-Rx 
14.7485 -18.758 5.3
-13.2385 15.8594 2.30852
-21.6565 22.2076 1.6
22 6 -108.012 -147.895 4.48857e-07 88.4239 11.4793 91.5761 59.3128
Tx-F-X-F-X-R-D-Rx 
14.7485 -18.758 5.3
42.6756 28.3005 3.79431
43.871 30.3148 3.72986
45.3216 32.7593 3.65165
45.6968 33.3914 3.63142
47.4057 36.2711 3.53929
41.4819 35.0294 3.37275
-21.6565 22.2076 1.6
23 1 -108.369 152.827 1.83444e-07 86.141 -45.5652 93.859 129.559
Tx-D-Rx 
14.7485 -18.758 5.3
-5.37114 5.59777 3.16907
-21.6565 22.2076 1.6
24 3 -108.406 136.534 2.5159e-07 85.5616 67.6915 92.4826 120.571
Tx-F-X-DS-Rx 
14.7485 -18.758 5.3
0.608537 5.17934 4.0946
-0.50115 7.05791 4
-16.6532 34.4016 2.62307
-21.6565 22.2076 1.6
25 4 -108.638 -96.7278 2.38472e-07 87.0324 126.26 92.9676 131.044
Tx-F-X-D-R-Rx 
14.7485 -18.758 5.3
-10.0535 9.72926 3.34193
-10.224 9.9251 3.32847
-24.6144 26.4537 2.19238
-26.5648 28.8994 2.03022
-21.6565 22.2076 1.6
5 25
-75.1604 1.71042e-07 3.77318e-08
1 0 -74.7937 -127.561 1.64992e-07 85.7087 -48.2574 94.2913 131.743
Tx-Rx 
14.7485 -18.758 5.3
-18.0806 18.0335 1.6
2 2 -96.8309 103.041 2.71669e-07 87.3953 109.465 92.6047 106.051
Tx-D-R-Rx 
14.7485 -18.758 5.3
5.9718 11.7473 3.85598
-22.9093 31.6958 2.25919
-18.0806 18.0335 1.6
3 1 -97.1654 -42.2405 1.65046e-07 85.7101 -46.3047 94.2899 130.639
Tx-D-Rx 
14.7485 -18.758 5.3
-5.77742 5.15686 2.93593
-18.0806 18.0335 1.6
4 1 -97.2996 167.648 2.18946e-07 86.7675 12.32 93.2325 104.576
Tx-D-Rx 
14.7485 -18.758 5.3
3.93103 22.8408 2.87247
-18.0806 18.0335 1.6
5 5 -98.3882 -127.384 3.65018e-07 88.0617 -35.6703 91.9383 -79.9023
Tx-R-F-X-R-R-Rx 
14.7485 -18.758 5.3
14.983 -20.075 5.25473
19.4085 -22.5679 5.08283
20.9085 -23.4129 5.02457
39.3433 -33.7977 4.30852
36.0993 -20.8561 3.857
-18.0806 18.0335 1.6
6 2 -98.6789 -88.3254 2.7167e-07 87.3953 109.418 92.6047 106.123
Tx-D-R-Rx 
14.7485 -18.758 5.3
5.90205 11.8444 3.85085
-22.8994 31.7033 2.25937
-18.0806 18.0335 1.6
7 1 -102.057 -57.196 1.69882e-07 85.8325 -67.3809 94.1675 141.705
Tx-D-Rx 
14.7485 -18.758 5.3
-11.3315 1.83496 2.87867
-18.0806 18.0335 1.6
8 1 -103.033 -4.60473 2.18946e-07 86.7675 12.3108 93.2325 104.572
Tx-D-Rx 
14.7485 -18.758 5.3
3.9355 22.8381 2.87268
-18.0806 18.0335 1.6
